Created As ASCII File,样品 075 用户 Administrator 日期 星期三, 四月 21 2021
cm-1,A
12000.00,0.2044
11999.00,0.2041
11998.00,0.2039
11997.00,0.2038
11996.00,0.2038
11995.00,0.2039
11994.00,0.2040
11993.00,0.2040
11992.00,0.2040
11991.00,0.2040
11990.00,0.2041
11989.00,0.2042
11988.00,0.2043
11987.00,0.2045
11986.00,0.2048
11985.00,0.2051
11984.00,0.2055
11983.00,0.2059
11982.00,0.2061
11981.00,0.2063
11980.00,0.2064
11979.00,0.2063
11978.00,0.2063
11977.00,0.2062
11976.00,0.2061
11975.00,0.2060
11974.00,0.2059
11973.00,0.2057
11972.00,0.2054
11971.00,0.2051
11970.00,0.2048
11969.00,0.2045
11968.00,0.2043
11967.00,0.2043
11966.00,0.2045
11965.00,0.2048
11964.00,0.2051
11963.00,0.2053
11962.00,0.2053
11961.00,0.2052
11960.00,0.2050
11959.00,0.2049
11958.00,0.2049
11957.00,0.2050
11956.00,0.2052
11955.00,0.2052
11954.00,0.2052
11953.00,0.2049
11952.00,0.2047
11951.00,0.2044
11950.00,0.2043
11949.00,0.2042
11948.00,0.2043
11947.00,0.2045
11946.00,0.2047
11945.00,0.2050
11944.00,0.2053
11943.00,0.2055
11942.00,0.2055
11941.00,0.2054
11940.00,0.2052
11939.00,0.2049
11938.00,0.2047
11937.00,0.2048
11936.00,0.2050
11935.00,0.2052
11934.00,0.2052
11933.00,0.2048
11932.00,0.2043
11931.00,0.2037
11930.00,0.2034
11929.00,0.2036
11928.00,0.2040
11927.00,0.2046
11926.00,0.2051
11925.00,0.2052
11924.00,0.2051
11923.00,0.2050
11922.00,0.2051
11921.00,0.2055
11920.00,0.2060
11919.00,0.2064
11918.00,0.2065
11917.00,0.2063
11916.00,0.2059
11915.00,0.2054
11914.00,0.2053
11913.00,0.2055
11912.00,0.2058
11911.00,0.2060
11910.00,0.2059
11909.00,0.2054
11908.00,0.2048
11907.00,0.2042
11906.00,0.2040
11905.00,0.2041
11904.00,0.2045
11903.00,0.2048
11902.00,0.2050
11901.00,0.2048
11900.00,0.2044
11899.00,0.2039
11898.00,0.2036
11897.00,0.2036
11896.00,0.2040
11895.00,0.2045
11894.00,0.2049
11893.00,0.2052
11892.00,0.2054
11891.00,0.2053
11890.00,0.2053
11889.00,0.2053
11888.00,0.2054
11887.00,0.2055
11886.00,0.2057
11885.00,0.2057
11884.00,0.2056
11883.00,0.2055
11882.00,0.2054
11881.00,0.2054
11880.00,0.2055
11879.00,0.2056
11878.00,0.2056
11877.00,0.2054
11876.00,0.2051
11875.00,0.2048
11874.00,0.2045
11873.00,0.2045
11872.00,0.2046
11871.00,0.2047
11870.00,0.2048
11869.00,0.2047
11868.00,0.2047
11867.00,0.2047
11866.00,0.2047
11865.00,0.2048
11864.00,0.2049
11863.00,0.2051
11862.00,0.2052
11861.00,0.2053
11860.00,0.2054
11859.00,0.2056
11858.00,0.2057
11857.00,0.2055
11856.00,0.2052
11855.00,0.2048
11854.00,0.2045
11853.00,0.2045
11852.00,0.2048
11851.00,0.2054
11850.00,0.2059
11849.00,0.2060
11848.00,0.2058
11847.00,0.2053
11846.00,0.2048
11845.00,0.2046
11844.00,0.2048
11843.00,0.2052
11842.00,0.2057
11841.00,0.2060
11840.00,0.2059
11839.00,0.2056
11838.00,0.2053
11837.00,0.2051
11836.00,0.2052
11835.00,0.2055
11834.00,0.2059
11833.00,0.2061
11832.00,0.2061
11831.00,0.2059
11830.00,0.2056
11829.00,0.2054
11828.00,0.2052
11827.00,0.2053
11826.00,0.2054
11825.00,0.2055
11824.00,0.2055
11823.00,0.2053
11822.00,0.2051
11821.00,0.2050
11820.00,0.2050
11819.00,0.2051
11818.00,0.2053
11817.00,0.2054
11816.00,0.2053
11815.00,0.2051
11814.00,0.2047
11813.00,0.2046
11812.00,0.2047
11811.00,0.2052
11810.00,0.2059
11809.00,0.2064
11808.00,0.2065
11807.00,0.2063
11806.00,0.2060
11805.00,0.2057
11804.00,0.2057
11803.00,0.2058
11802.00,0.2060
11801.00,0.2060
11800.00,0.2057
11799.00,0.2051
11798.00,0.2046
11797.00,0.2043
11796.00,0.2043
11795.00,0.2046
11794.00,0.2048
11793.00,0.2050
11792.00,0.2050
11791.00,0.2049
11790.00,0.2050
11789.00,0.2053
11788.00,0.2057
11787.00,0.2060
11786.00,0.2061
11785.00,0.2060
11784.00,0.2056
11783.00,0.2052
11782.00,0.2050
11781.00,0.2050
11780.00,0.2053
11779.00,0.2055
11778.00,0.2057
11777.00,0.2057
11776.00,0.2054
11775.00,0.2049
11774.00,0.2045
11773.00,0.2042
11772.00,0.2041
11771.00,0.2042
11770.00,0.2046
11769.00,0.2051
11768.00,0.2054
11767.00,0.2056
11766.00,0.2055
11765.00,0.2054
11764.00,0.2054
11763.00,0.2055
11762.00,0.2059
11761.00,0.2064
11760.00,0.2067
11759.00,0.2067
11758.00,0.2063
11757.00,0.2058
11756.00,0.2053
11755.00,0.2050
11754.00,0.2049
11753.00,0.2051
11752.00,0.2053
11751.00,0.2055
11750.00,0.2056
11749.00,0.2056
11748.00,0.2055
11747.00,0.2054
11746.00,0.2053
11745.00,0.2053
11744.00,0.2052
11743.00,0.2052
11742.00,0.2052
11741.00,0.2051
11740.00,0.2049
11739.00,0.2047
11738.00,0.2046
11737.00,0.2045
11736.00,0.2047
11735.00,0.2051
11734.00,0.2056
11733.00,0.2061
11732.00,0.2065
11731.00,0.2067
11730.00,0.2067
11729.00,0.2065
11728.00,0.2064
11727.00,0.2062
11726.00,0.2061
11725.00,0.2062
11724.00,0.2062
11723.00,0.2063
11722.00,0.2064
11721.00,0.2064
11720.00,0.2062
11719.00,0.2059
11718.00,0.2057
11717.00,0.2056
11716.00,0.2057
11715.00,0.2061
11714.00,0.2066
11713.00,0.2070
11712.00,0.2071
11711.00,0.2068
11710.00,0.2061
11709.00,0.2055
11708.00,0.2050
11707.00,0.2049
11706.00,0.2050
11705.00,0.2052
11704.00,0.2052
11703.00,0.2050
11702.00,0.2046
11701.00,0.2043
11700.00,0.2042
11699.00,0.2046
11698.00,0.2051
11697.00,0.2057
11696.00,0.2061
11695.00,0.2061
11694.00,0.2059
11693.00,0.2057
11692.00,0.2057
11691.00,0.2058
11690.00,0.2060
11689.00,0.2061
11688.00,0.2061
11687.00,0.2059
11686.00,0.2057
11685.00,0.2056
11684.00,0.2057
11683.00,0.2059
11682.00,0.2062
11681.00,0.2064
11680.00,0.2064
11679.00,0.2063
11678.00,0.2062
11677.00,0.2062
11676.00,0.2062
11675.00,0.2062
11674.00,0.2061
11673.00,0.2059
11672.00,0.2057
11671.00,0.2056
11670.00,0.2057
11669.00,0.2059
11668.00,0.2062
11667.00,0.2063
11666.00,0.2062
11665.00,0.2059
11664.00,0.2056
11663.00,0.2055
11662.00,0.2055
11661.00,0.2057
11660.00,0.2060
11659.00,0.2062
11658.00,0.2061
11657.00,0.2059
11656.00,0.2055
11655.00,0.2052
11654.00,0.2051
11653.00,0.2051
11652.00,0.2052
11651.00,0.2054
11650.00,0.2056
11649.00,0.2057
11648.00,0.2056
11647.00,0.2055
11646.00,0.2055
11645.00,0.2055
11644.00,0.2056
11643.00,0.2059
11642.00,0.2062
11641.00,0.2063
11640.00,0.2061
11639.00,0.2058
11638.00,0.2054
11637.00,0.2052
11636.00,0.2052
11635.00,0.2054
11634.00,0.2057
11633.00,0.2058
11632.00,0.2057
11631.00,0.2054
11630.00,0.2052
11629.00,0.2053
11628.00,0.2057
11627.00,0.2064
11626.00,0.2070
11625.00,0.2072
11624.00,0.2068
11623.00,0.2062
11622.00,0.2055
11621.00,0.2053
11620.00,0.2057
11619.00,0.2064
11618.00,0.2072
11617.00,0.2076
11616.00,0.2075
11615.00,0.2069
11614.00,0.2062
11613.00,0.2059
11612.00,0.2059
11611.00,0.2064
11610.00,0.2069
11609.00,0.2071
11608.00,0.2070
11607.00,0.2066
11606.00,0.2061
11605.00,0.2058
11604.00,0.2057
11603.00,0.2059
11602.00,0.2063
11601.00,0.2066
11600.00,0.2068
11599.00,0.2070
11598.00,0.2070
11597.00,0.2071
11596.00,0.2071
11595.00,0.2071
11594.00,0.2070
11593.00,0.2068
11592.00,0.2067
11591.00,0.2066
11590.00,0.2065
11589.00,0.2066
11588.00,0.2067
11587.00,0.2067
11586.00,0.2066
11585.00,0.2064
11584.00,0.2063
11583.00,0.2063
11582.00,0.2064
11581.00,0.2066
11580.00,0.2067
11579.00,0.2067
11578.00,0.2066
11577.00,0.2065
11576.00,0.2064
11575.00,0.2065
11574.00,0.2066
11573.00,0.2067
11572.00,0.2067
11571.00,0.2065
11570.00,0.2062
11569.00,0.2061
11568.00,0.2062
11567.00,0.2065
11566.00,0.2069
11565.00,0.2071
11564.00,0.2071
11563.00,0.2070
11562.00,0.2069
11561.00,0.2069
11560.00,0.2070
11559.00,0.2072
11558.00,0.2073
11557.00,0.2072
11556.00,0.2069
11555.00,0.2066
11554.00,0.2064
11553.00,0.2062
11552.00,0.2061
11551.00,0.2060
11550.00,0.2057
11549.00,0.2054
11548.00,0.2051
11547.00,0.2050
11546.00,0.2050
11545.00,0.2052
11544.00,0.2053
11543.00,0.2055
11542.00,0.2056
11541.00,0.2057
11540.00,0.2058
11539.00,0.2059
11538.00,0.2059
11537.00,0.2058
11536.00,0.2058
11535.00,0.2058
11534.00,0.2059
11533.00,0.2062
11532.00,0.2065
11531.00,0.2067
11530.00,0.2067
11529.00,0.2066
11528.00,0.2064
11527.00,0.2063
11526.00,0.2063
11525.00,0.2066
11524.00,0.2069
11523.00,0.2071
11522.00,0.2072
11521.00,0.2071
11520.00,0.2070
11519.00,0.2068
11518.00,0.2066
11517.00,0.2066
11516.00,0.2067
11515.00,0.2069
11514.00,0.2072
11513.00,0.2074
11512.00,0.2073
11511.00,0.2071
11510.00,0.2067
11509.00,0.2064
11508.00,0.2061
11507.00,0.2060
11506.00,0.2060
11505.00,0.2061
11504.00,0.2061
11503.00,0.2059
11502.00,0.2057
11501.00,0.2055
11500.00,0.2054
11499.00,0.2055
11498.00,0.2056
11497.00,0.2057
11496.00,0.2056
11495.00,0.2055
11494.00,0.2053
11493.00,0.2053
11492.00,0.2054
11491.00,0.2056
11490.00,0.2058
11489.00,0.2059
11488.00,0.2059
11487.00,0.2059
11486.00,0.2058
11485.00,0.2059
11484.00,0.2060
11483.00,0.2062
11482.00,0.2064
11481.00,0.2064
11480.00,0.2063
11479.00,0.2061
11478.00,0.2058
11477.00,0.2056
11476.00,0.2055
11475.00,0.2055
11474.00,0.2057
11473.00,0.2059
11472.00,0.2062
11471.00,0.2063
11470.00,0.2064
11469.00,0.2064
11468.00,0.2064
11467.00,0.2066
11466.00,0.2068
11465.00,0.2071
11464.00,0.2073
11463.00,0.2074
11462.00,0.2073
11461.00,0.2071
11460.00,0.2069
11459.00,0.2067
11458.00,0.2065
11457.00,0.2064
11456.00,0.2063
11455.00,0.2063
11454.00,0.2062
11453.00,0.2062
11452.00,0.2063
11451.00,0.2063
11450.00,0.2063
11449.00,0.2063
11448.00,0.2064
11447.00,0.2065
11446.00,0.2068
11445.00,0.2071
11444.00,0.2074
11443.00,0.2075
11442.00,0.2074
11441.00,0.2071
11440.00,0.2067
11439.00,0.2065
11438.00,0.2064
11437.00,0.2065
11436.00,0.2067
11435.00,0.2068
11434.00,0.2068
11433.00,0.2065
11432.00,0.2061
11431.00,0.2058
11430.00,0.2057
11429.00,0.2059
11428.00,0.2064
11427.00,0.2070
11426.00,0.2074
11425.00,0.2076
11424.00,0.2073
11423.00,0.2069
11422.00,0.2066
11421.00,0.2065
11420.00,0.2067
11419.00,0.2070
11418.00,0.2073
11417.00,0.2072
11416.00,0.2068
11415.00,0.2061
11414.00,0.2056
11413.00,0.2055
11412.00,0.2057
11411.00,0.2061
11410.00,0.2065
11409.00,0.2067
11408.00,0.2065
11407.00,0.2063
11406.00,0.2061
11405.00,0.2061
11404.00,0.2063
11403.00,0.2065
11402.00,0.2067
11401.00,0.2067
11400.00,0.2066
11399.00,0.2066
11398.00,0.2067
11397.00,0.2068
11396.00,0.2068
11395.00,0.2068
11394.00,0.2067
11393.00,0.2066
11392.00,0.2068
11391.00,0.2071
11390.00,0.2075
11389.00,0.2077
11388.00,0.2076
11387.00,0.2072
11386.00,0.2067
11385.00,0.2064
11384.00,0.2064
11383.00,0.2067
11382.00,0.2071
11381.00,0.2072
11380.00,0.2069
11379.00,0.2065
11378.00,0.2059
11377.00,0.2056
11376.00,0.2057
11375.00,0.2059
11374.00,0.2063
11373.00,0.2065
11372.00,0.2066
11371.00,0.2066
11370.00,0.2066
11369.00,0.2066
11368.00,0.2066
11367.00,0.2067
11366.00,0.2067
11365.00,0.2067
11364.00,0.2067
11363.00,0.2067
11362.00,0.2066
11361.00,0.2066
11360.00,0.2065
11359.00,0.2064
11358.00,0.2061
11357.00,0.2059
11356.00,0.2059
11355.00,0.2060
11354.00,0.2062
11353.00,0.2064
11352.00,0.2066
11351.00,0.2066
11350.00,0.2065
11349.00,0.2063
11348.00,0.2061
11347.00,0.2060
11346.00,0.2060
11345.00,0.2062
11344.00,0.2064
11343.00,0.2067
11342.00,0.2068
11341.00,0.2068
11340.00,0.2066
11339.00,0.2063
11338.00,0.2061
11337.00,0.2061
11336.00,0.2064
11335.00,0.2068
11334.00,0.2071
11333.00,0.2071
11332.00,0.2070
11331.00,0.2068
11330.00,0.2067
11329.00,0.2067
11328.00,0.2070
11327.00,0.2073
11326.00,0.2075
11325.00,0.2077
11324.00,0.2077
11323.00,0.2078
11322.00,0.2079
11321.00,0.2081
11320.00,0.2082
11319.00,0.2082
11318.00,0.2082
11317.00,0.2081
11316.00,0.2080
11315.00,0.2080
11314.00,0.2079
11313.00,0.2079
11312.00,0.2078
11311.00,0.2077
11310.00,0.2075
11309.00,0.2072
11308.00,0.2069
11307.00,0.2066
11306.00,0.2065
11305.00,0.2064
11304.00,0.2065
11303.00,0.2065
11302.00,0.2065
11301.00,0.2065
11300.00,0.2064
11299.00,0.2065
11298.00,0.2067
11297.00,0.2070
11296.00,0.2074
11295.00,0.2077
11294.00,0.2078
11293.00,0.2077
11292.00,0.2075
11291.00,0.2073
11290.00,0.2072
11289.00,0.2071
11288.00,0.2071
11287.00,0.2071
11286.00,0.2072
11285.00,0.2073
11284.00,0.2073
11283.00,0.2074
11282.00,0.2073
11281.00,0.2072
11280.00,0.2072
11279.00,0.2073
11278.00,0.2075
11277.00,0.2079
11276.00,0.2081
11275.00,0.2082
11274.00,0.2079
11273.00,0.2076
11272.00,0.2073
11271.00,0.2072
11270.00,0.2074
11269.00,0.2077
11268.00,0.2079
11267.00,0.2078
11266.00,0.2075
11265.00,0.2071
11264.00,0.2068
11263.00,0.2066
11262.00,0.2066
11261.00,0.2066
11260.00,0.2066
11259.00,0.2064
11258.00,0.2063
11257.00,0.2063
11256.00,0.2065
11255.00,0.2067
11254.00,0.2069
11253.00,0.2069
11252.00,0.2068
11251.00,0.2067
11250.00,0.2067
11249.00,0.2069
11248.00,0.2072
11247.00,0.2075
11246.00,0.2077
11245.00,0.2076
11244.00,0.2076
11243.00,0.2075
11242.00,0.2075
11241.00,0.2075
11240.00,0.2076
11239.00,0.2075
11238.00,0.2074
11237.00,0.2072
11236.00,0.2071
11235.00,0.2070
11234.00,0.2069
11233.00,0.2067
11232.00,0.2066
11231.00,0.2066
11230.00,0.2068
11229.00,0.2071
11228.00,0.2075
11227.00,0.2078
11226.00,0.2081
11225.00,0.2082
11224.00,0.2082
11223.00,0.2082
11222.00,0.2083
11221.00,0.2084
11220.00,0.2084
11219.00,0.2083
11218.00,0.2080
11217.00,0.2077
11216.00,0.2074
11215.00,0.2073
11214.00,0.2074
11213.00,0.2075
11212.00,0.2076
11211.00,0.2076
11210.00,0.2075
11209.00,0.2075
11208.00,0.2076
11207.00,0.2078
11206.00,0.2081
11205.00,0.2083
11204.00,0.2084
11203.00,0.2083
11202.00,0.2080
11201.00,0.2077
11200.00,0.2073
11199.00,0.2070
11198.00,0.2069
11197.00,0.2069
11196.00,0.2070
11195.00,0.2072
11194.00,0.2073
11193.00,0.2072
11192.00,0.2071
11191.00,0.2070
11190.00,0.2070
11189.00,0.2072
11188.00,0.2074
11187.00,0.2076
11186.00,0.2076
11185.00,0.2074
11184.00,0.2071
11183.00,0.2070
11182.00,0.2070
11181.00,0.2071
11180.00,0.2073
11179.00,0.2074
11178.00,0.2073
11177.00,0.2072
11176.00,0.2071
11175.00,0.2070
11174.00,0.2070
11173.00,0.2071
11172.00,0.2071
11171.00,0.2072
11170.00,0.2072
11169.00,0.2073
11168.00,0.2074
11167.00,0.2075
11166.00,0.2075
11165.00,0.2075
11164.00,0.2075
11163.00,0.2075
11162.00,0.2076
11161.00,0.2077
11160.00,0.2077
11159.00,0.2077
11158.00,0.2076
11157.00,0.2075
11156.00,0.2074
11155.00,0.2072
11154.00,0.2072
11153.00,0.2073
11152.00,0.2074
11151.00,0.2076
11150.00,0.2077
11149.00,0.2077
11148.00,0.2075
11147.00,0.2073
11146.00,0.2073
11145.00,0.2074
11144.00,0.2076
11143.00,0.2077
11142.00,0.2076
11141.00,0.2073
11140.00,0.2069
11139.00,0.2067
11138.00,0.2068
11137.00,0.2071
11136.00,0.2075
11135.00,0.2077
11134.00,0.2076
11133.00,0.2074
11132.00,0.2072
11131.00,0.2072
11130.00,0.2074
11129.00,0.2077
11128.00,0.2079
11127.00,0.2079
11126.00,0.2078
11125.00,0.2076
11124.00,0.2076
11123.00,0.2076
11122.00,0.2076
11121.00,0.2076
11120.00,0.2076
11119.00,0.2076
11118.00,0.2078
11117.00,0.2080
11116.00,0.2081
11115.00,0.2081
11114.00,0.2080
11113.00,0.2079
11112.00,0.2078
11111.00,0.2078
11110.00,0.2079
11109.00,0.2080
11108.00,0.2080
11107.00,0.2079
11106.00,0.2079
11105.00,0.2079
11104.00,0.2081
11103.00,0.2082
11102.00,0.2083
11101.00,0.2084
11100.00,0.2085
11099.00,0.2085
11098.00,0.2085
11097.00,0.2084
11096.00,0.2083
11095.00,0.2082
11094.00,0.2080
11093.00,0.2080
11092.00,0.2080
11091.00,0.2080
11090.00,0.2079
11089.00,0.2078
11088.00,0.2077
11087.00,0.2076
11086.00,0.2077
11085.00,0.2077
11084.00,0.2077
11083.00,0.2077
11082.00,0.2076
11081.00,0.2076
11080.00,0.2076
11079.00,0.2077
11078.00,0.2076
11077.00,0.2074
11076.00,0.2071
11075.00,0.2068
11074.00,0.2067
11073.00,0.2069
11072.00,0.2073
11071.00,0.2076
11070.00,0.2078
11069.00,0.2077
11068.00,0.2074
11067.00,0.2072
11066.00,0.2072
11065.00,0.2074
11064.00,0.2078
11063.00,0.2081
11062.00,0.2083
11061.00,0.2085
11060.00,0.2085
11059.00,0.2084
11058.00,0.2084
11057.00,0.2083
11056.00,0.2083
11055.00,0.2083
11054.00,0.2083
11053.00,0.2084
11052.00,0.2084
11051.00,0.2082
11050.00,0.2079
11049.00,0.2075
11048.00,0.2072
11047.00,0.2071
11046.00,0.2071
11045.00,0.2073
11044.00,0.2074
11043.00,0.2074
11042.00,0.2073
11041.00,0.2071
11040.00,0.2070
11039.00,0.2069
11038.00,0.2069
11037.00,0.2068
11036.00,0.2067
11035.00,0.2067
11034.00,0.2067
11033.00,0.2069
11032.00,0.2071
11031.00,0.2074
11030.00,0.2077
11029.00,0.2078
11028.00,0.2080
11027.00,0.2080
11026.00,0.2081
11025.00,0.2081
11024.00,0.2080
11023.00,0.2079
11022.00,0.2078
11021.00,0.2078
11020.00,0.2080
11019.00,0.2080
11018.00,0.2080
11017.00,0.2077
11016.00,0.2074
11015.00,0.2071
11014.00,0.2071
11013.00,0.2073
11012.00,0.2077
11011.00,0.2081
11010.00,0.2083
11009.00,0.2083
11008.00,0.2083
11007.00,0.2084
11006.00,0.2086
11005.00,0.2089
11004.00,0.2091
11003.00,0.2091
11002.00,0.2089
11001.00,0.2085
11000.00,0.2081
10999.00,0.2078
10998.00,0.2076
10997.00,0.2075
10996.00,0.2073
10995.00,0.2072
10994.00,0.2072
10993.00,0.2072
10992.00,0.2073
10991.00,0.2076
10990.00,0.2078
10989.00,0.2081
10988.00,0.2083
10987.00,0.2085
10986.00,0.2086
10985.00,0.2085
10984.00,0.2082
10983.00,0.2079
10982.00,0.2076
10981.00,0.2075
10980.00,0.2077
10979.00,0.2080
10978.00,0.2083
10977.00,0.2083
10976.00,0.2081
10975.00,0.2078
10974.00,0.2075
10973.00,0.2075
10972.00,0.2077
10971.00,0.2081
10970.00,0.2083
10969.00,0.2082
10968.00,0.2079
10967.00,0.2074
10966.00,0.2071
10965.00,0.2071
10964.00,0.2074
10963.00,0.2077
10962.00,0.2080
10961.00,0.2081
10960.00,0.2079
10959.00,0.2076
10958.00,0.2074
10957.00,0.2073
10956.00,0.2073
10955.00,0.2075
10954.00,0.2077
10953.00,0.2078
10952.00,0.2079
10951.00,0.2080
10950.00,0.2081
10949.00,0.2082
10948.00,0.2085
10947.00,0.2090
10946.00,0.2094
10945.00,0.2098
10944.00,0.2100
10943.00,0.2099
10942.00,0.2095
10941.00,0.2090
10940.00,0.2085
10939.00,0.2081
10938.00,0.2080
10937.00,0.2080
10936.00,0.2080
10935.00,0.2079
10934.00,0.2078
10933.00,0.2076
10932.00,0.2075
10931.00,0.2076
10930.00,0.2078
10929.00,0.2080
10928.00,0.2081
10927.00,0.2081
10926.00,0.2080
10925.00,0.2078
10924.00,0.2076
10923.00,0.2074
10922.00,0.2073
10921.00,0.2072
10920.00,0.2073
10919.00,0.2075
10918.00,0.2078
10917.00,0.2079
10916.00,0.2080
10915.00,0.2080
10914.00,0.2080
10913.00,0.2081
10912.00,0.2083
10911.00,0.2087
10910.00,0.2089
10909.00,0.2090
10908.00,0.2089
10907.00,0.2086
10906.00,0.2083
10905.00,0.2081
10904.00,0.2080
10903.00,0.2080
10902.00,0.2079
10901.00,0.2077
10900.00,0.2074
10899.00,0.2069
10898.00,0.2065
10897.00,0.2063
10896.00,0.2063
10895.00,0.2066
10894.00,0.2069
10893.00,0.2071
10892.00,0.2073
10891.00,0.2074
10890.00,0.2075
10889.00,0.2077
10888.00,0.2078
10887.00,0.2078
10886.00,0.2078
10885.00,0.2077
10884.00,0.2076
10883.00,0.2076
10882.00,0.2076
10881.00,0.2076
10880.00,0.2075
10879.00,0.2074
10878.00,0.2072
10877.00,0.2070
10876.00,0.2068
10875.00,0.2068
10874.00,0.2068
10873.00,0.2068
10872.00,0.2069
10871.00,0.2070
10870.00,0.2070
10869.00,0.2069
10868.00,0.2067
10867.00,0.2066
10866.00,0.2066
10865.00,0.2067
10864.00,0.2069
10863.00,0.2071
10862.00,0.2072
10861.00,0.2073
10860.00,0.2075
10859.00,0.2076
10858.00,0.2078
10857.00,0.2079
10856.00,0.2078
10855.00,0.2077
10854.00,0.2076
10853.00,0.2076
10852.00,0.2077
10851.00,0.2078
10850.00,0.2078
10849.00,0.2077
10848.00,0.2074
10847.00,0.2072
10846.00,0.2071
10845.00,0.2072
10844.00,0.2074
10843.00,0.2075
10842.00,0.2075
10841.00,0.2074
10840.00,0.2073
10839.00,0.2072
10838.00,0.2073
10837.00,0.2073
10836.00,0.2072
10835.00,0.2071
10834.00,0.2069
10833.00,0.2067
10832.00,0.2066
10831.00,0.2065
10830.00,0.2065
10829.00,0.2064
